wavelength,spectrum
1150,0.077
1155,0.086
1160,0.06
1165,0.0
1170,0.002
1175,0.0
1180,0.0
1185,0.0
1190,0.0
1195,0.0
1200,0.0
1205,0.004
1210,0.009
1215,0.013
1220,0.016
1225,0.014
1230,0.015
1235,0.015
1240,0.014
1245,0.019
1250,0.038
1255,0.045
1260,0.044
1265,0.069
1270,0.121
1275,0.144
1280,0.197
1285,0.23
1290,0.247
1295,0.276
1300,0.24
1305,0.197
1310,0.236
1315,0.345
1320,0.388
1325,0.388
1330,0.367
1335,0.39
1340,0.478
1345,0.486
1350,0.44
1355,0.409
1360,0.422
1365,0.425
1370,0.429
1375,0.455
1380,0.452
1385,0.467
1390,0.476
1395,0.456
1400,0.465
1405,0.488
1410,0.481
1415,0.501
1420,0.537
1425,0.552
1430,0.516
1435,0.502
1440,0.554
1445,0.595
1450,0.629
1455,0.628
1460,0.614
1465,0.578
1470,0.556
1475,0.564
1480,0.587
1485,0.643
1490,0.688
1495,0.697
1500,0.712
1505,0.655
1510,0.581
1515,0.604
1520,0.661
1525,0.616
1530,0.596
1535,0.616
1540,0.668
1545,0.678
1550,0.66
1555,0.636
1560,0.622
1565,0.651
1570,0.64
1575,0.648
1580,0.698
1585,0.691
1590,0.679
1595,0.67
1600,0.685
1605,0.666
1610,0.662
1615,0.664
1620,0.653
1625,0.655
1630,0.662
1635,0.649
1640,0.633
1645,0.646
1650,0.616
1655,0.553
1660,0.582
1665,0.622
1670,0.564
1675,0.597
1680,0.647
1685,0.649
1690,0.643
1695,0.635
1700,0.632
1705,0.625
1710,0.634
1715,0.63
1720,0.609
1725,0.611
1730,0.637
1735,0.634
1740,0.643
1745,0.659
1750,0.676
1755,0.698
1760,0.657
1765,0.627
1770,0.655
1775,0.685
1780,0.682
1785,0.604
1790,0.525
1795,0.662
1800,0.716
1805,0.686
1810,0.681
1815,0.687
1820,0.692
1825,0.683
1830,0.664
1835,0.654
1840,0.624
1845,0.613
1850,0.631
1855,0.632
1860,0.635
1865,0.644
1870,0.662
1875,0.66
1880,0.659
1885,0.656
1890,0.641
1895,0.62
1900,0.606
1905,0.614
1910,0.615
1915,0.613
1920,0.614
1925,0.614
1930,0.624
1935,0.632
1940,0.639
1945,0.64
1950,0.642
1955,0.642
1960,0.64
1965,0.632
1970,0.659
1975,0.682
1980,0.667
1985,0.666
1990,0.619
1995,0.569
2000,0.599
2005,0.612
2010,0.596
2015,0.597
2020,0.595
2025,0.586
2030,0.602
2035,0.59
2040,0.572
2045,0.586
2050,0.596
2055,0.599
2060,0.593
2065,0.575
2070,0.583
2075,0.619
2080,0.646
2085,0.652
2090,0.641
2095,0.611
2100,0.582
2105,0.58
2110,0.597
2115,0.589
2120,0.574
2125,0.61
2130,0.6
2135,0.555
2140,0.52
2145,0.537
2150,0.575
2155,0.589
2160,0.604
2165,0.552
2170,0.525
2175,0.499
2180,0.5
2185,0.545
2190,0.572
2195,0.583
2200,0.591
2205,0.556
2210,0.516
2215,0.489
2220,0.483
2225,0.484
2230,0.494
2235,0.484
2240,0.498
2245,0.473
2250,0.491
2255,0.493
2260,0.486
2265,0.483
2270,0.49
2275,0.489
2280,0.494
2285,0.498
2290,0.521
2295,0.532
2300,0.519
2305,0.513
2310,0.522
2315,0.517
2320,0.473
2325,0.472
2330,0.492
2335,0.484
2340,0.467
2345,0.458
2350,0.45
2355,0.435
2360,0.44
2365,0.432
2370,0.437
2375,0.43
2380,0.457
2385,0.428
2390,0.38
2395,0.375
2400,0.406
2405,0.4
2410,0.371
2415,0.391
2420,0.411
2425,0.427
2430,0.45
2435,0.43
2440,0.416
2445,0.44
2450,0.46
2455,0.464
2460,0.466
2465,0.456
2470,0.429
2475,0.419
2480,0.425
2485,0.406
2490,0.387
2495,0.377
2500,0.443
2505,0.437
2510,0.419
2515,0.436
2520,0.416
2525,0.392
2530,0.388
2535,0.417
2540,0.419
2545,0.398
2550,0.405
2555,0.417
2560,0.421
2565,0.43
2570,0.454
2575,0.44
2580,0.336
2585,0.324
2590,0.402
2595,0.44
2600,0.44
2605,0.431
2610,0.434
2615,0.429
2620,0.444
2625,0.44
2630,0.43
2635,0.448
2640,0.45
2645,0.465
2650,0.484
2655,0.487
2660,0.469
2665,0.451
2670,0.428
2675,0.426
2680,0.451
2685,0.461
2690,0.447
2695,0.422
2700,0.429
2705,0.446
2710,0.422
2715,0.42
2720,0.42
2725,0.414
2730,0.422
2735,0.438
2740,0.436
2745,0.415
2750,0.406
2755,0.39
2760,0.397
2765,0.415
2770,0.419
2775,0.434
2780,0.46
2785,0.44
2790,0.429
2795,0.406
2800,0.361
2805,0.358
2810,0.389
2815,0.435
2820,0.452
2825,0.438
2830,0.424
2835,0.433
2840,0.444
2845,0.438
2850,0.422
2855,0.406
2860,0.406
2865,0.42
2870,0.424
2875,0.419
2880,0.415
2885,0.424
2890,0.434
2895,0.426
2900,0.421
2905,0.43
2910,0.455
2915,0.458
2920,0.459
2925,0.44
2930,0.434
2935,0.442
2940,0.441
2945,0.452
2950,0.432
2955,0.451
2960,0.463
2965,0.453
2970,0.449
2975,0.457
2980,0.454
2985,0.446
2990,0.457
2995,0.453
3000,0.455
3005,0.441
3010,0.451
3015,0.441
3020,0.424
3025,0.429
3030,0.431
3035,0.433
3040,0.447
3045,0.445
3050,0.438
3055,0.438
3060,0.425
3065,0.412
3070,0.405
3075,0.411
3080,0.442
3085,0.443
3090,0.429
3095,0.435
3100,0.428
3105,0.416
3110,0.403
3115,0.4
3120,0.408
3125,0.428
3130,0.446
3135,0.426
3140,0.417
3145,0.437
3150,0.439
3155,0.433
3160,0.424
3165,0.434
3170,0.445
3175,0.442
3180,0.422
3185,0.429
3190,0.454
3195,0.453
3200,0.434
3205,0.434
3210,0.435
3215,0.428
3220,0.419
3225,0.414
3230,0.415
3235,0.418
3240,0.418
3245,0.415
3250,0.413
3255,0.418
3260,0.424
3265,0.423
3270,0.42
3275,0.418
3280,0.416
3285,0.411
3290,0.411
3295,0.423
3300,0.431
3305,0.422
3310,0.41
3315,0.408
3320,0.411
3325,0.412
3330,0.412
3335,0.414
3340,0.415
3345,0.414
3350,0.412
3355,0.411
3360,0.409
3365,0.404
3370,0.4
3375,0.399
3380,0.398
3385,0.396
3390,0.394
3395,0.395
3400,0.401
3405,0.41
3410,0.415
3415,0.413
3420,0.409
3425,0.407
3430,0.404
3435,0.397
3440,0.391
3445,0.392
3450,0.395
3455,0.394
3460,0.393
3465,0.395
3470,0.397
3475,0.394
3480,0.39
3485,0.389
3490,0.389
3495,0.385
3500,0.383
3505,0.387
3510,0.39
3515,0.389
3520,0.388
3525,0.388
3530,0.392
3535,0.395
3540,0.395
3545,0.393
3550,0.39
3555,0.389
3560,0.388
3565,0.383
3570,0.378
3575,0.378
3580,0.377
3585,0.375
3590,0.376
3595,0.379
3600,0.379
3605,0.379
3610,0.373
3615,0.373
3620,0.375
3625,0.379
3630,0.38
3635,0.381
3640,0.382
3645,0.381
3650,0.384
3655,0.389
3660,0.39
3665,0.389
3670,0.388
3675,0.384
3680,0.38
3685,0.379
3690,0.382
3695,0.387
3700,0.389
3705,0.399
3710,0.407
3715,0.426
3720,0.43
3725,0.451
3730,0.453
3735,0.433
3740,0.488
3745,0.475
3750,0.429
3755,0.498
3760,0.553
3765,0.509
3770,0.448
3775,0.531
3780,0.654
3785,0.689
3790,0.601
3795,0.479
3800,0.487
3805,0.64
3810,0.765
3815,0.806
3820,0.782
3825,0.679
3830,0.524
3835,0.433
3840,0.545
3845,0.704
3850,0.832
3855,0.902
3860,0.94
3865,0.948
3870,0.901
3875,0.8
3880,0.66
3885,0.496
3890,0.451
3895,0.584
3900,0.743
3905,0.853
3910,0.935
3915,0.979
3925,0.983
3930,0.882
3935,0.87
3940,0.936
3945,0.936
3950,0.877
3955,0.794
3960,0.659
3965,0.484
3970,0.417
3975,0.539
3980,0.698
3985,0.823
3990,0.912
3995,0.961
4000,0.99
4005,1.0
4030,1.0
4035,0.999
4040,0.997
4045,0.994
4050,0.997
4055,0.989
4060,0.976
4065,0.955
4070,0.923
4075,0.887
4080,0.848
4085,0.792
4090,0.695
4095,0.562
4100,0.454
4105,0.471
4110,0.577
4115,0.686
4120,0.775
4125,0.833
4130,0.871
4135,0.91
4140,0.937
4145,0.951
4150,0.959
4155,0.96
4160,0.96
4165,0.957
4170,0.941
4175,0.929
4180,0.923
4185,0.923
4190,0.93
4195,0.934
4200,0.935
4205,0.95
4210,0.955
4215,0.943
4220,0.931
4225,0.917
4230,0.911
4235,0.911
4240,0.909
4245,0.899
4250,0.894
4255,0.895
4260,0.892
4265,0.892
4270,0.887
4275,0.895
4280,0.904
4285,0.899
4290,0.881
4295,0.862
4300,0.833
4305,0.817
4310,0.808
4315,0.796
4320,0.766
4325,0.699
4330,0.604
4335,0.486
4340,0.411
4345,0.446
4350,0.537
4355,0.637
4360,0.716
4365,0.772
4370,0.799
4375,0.81
4380,0.812
4385,0.81
4390,0.816
4395,0.819
4400,0.818
4405,0.821
4410,0.822
4415,0.814
4420,0.816
4425,0.819
4430,0.811
4435,0.807
4440,0.804
4445,0.806
4450,0.809
4455,0.805
4460,0.798
4465,0.79
4470,0.783
4475,0.782
4480,0.771
4485,0.775
4490,0.781
4495,0.785
4500,0.786
4505,0.787
4510,0.788
4515,0.782
4520,0.772
4525,0.765
4530,0.76
4535,0.762
4540,0.762
4545,0.749
4550,0.739
4555,0.742
4560,0.746
4565,0.744
4570,0.738
4575,0.736
4580,0.728
4585,0.72
4590,0.723
4595,0.728
4600,0.728
4605,0.731
4610,0.728
4615,0.722
4620,0.723
4625,0.717
4630,0.712
4635,0.711
4640,0.711
4645,0.71
4650,0.711
4655,0.71
4660,0.708
4665,0.702
4670,0.695
4675,0.692
4680,0.694
4685,0.7
4690,0.696
4695,0.694
4700,0.693
4705,0.692
4710,0.688
4715,0.678
4720,0.673
4725,0.673
4730,0.67
4735,0.664
4740,0.663
4745,0.666
4750,0.666
4755,0.661
4760,0.653
4765,0.65
4770,0.649
4775,0.651
4780,0.649
4785,0.648
4790,0.65
4795,0.648
4800,0.637
4805,0.63
4810,0.624
4815,0.62
4820,0.612
4825,0.598
4830,0.585
4835,0.569
4840,0.547
4845,0.51
4850,0.451
4855,0.371
4860,0.313
4865,0.338
4870,0.401
4875,0.459
4880,0.507
4885,0.539
4890,0.561
4895,0.575
4900,0.58
4905,0.584
4910,0.588
4915,0.587
4920,0.579
4925,0.58
4930,0.584
4935,0.582
4940,0.588
4945,0.593
4950,0.591
4955,0.584
4960,0.587
4965,0.589
4970,0.589
4975,0.589
4980,0.581
4985,0.574
4990,0.576
4995,0.572
5000,0.565
5005,0.566
5010,0.565
5015,0.556
5020,0.555
5025,0.562
5030,0.561
5035,0.56
5040,0.558
5045,0.559
5050,0.555
5055,0.553
5060,0.557
5065,0.553
5070,0.554
5075,0.55
5080,0.547
5085,0.551
5090,0.552
5095,0.548
5100,0.544
5105,0.546
5110,0.547
5115,0.55
5120,0.547
5125,0.541
5130,0.54
5135,0.538
5140,0.534
5145,0.533
5150,0.53
5155,0.525
5160,0.522
5165,0.509
5170,0.503
5175,0.511
5180,0.511
5185,0.507
5190,0.509
5195,0.509
5200,0.504
5205,0.5
5210,0.502
5215,0.506
5220,0.508
5225,0.503
5230,0.5
5235,0.5
5240,0.498
5245,0.498
5250,0.496
5255,0.498
5260,0.493
5265,0.481
5270,0.476
5275,0.476
5280,0.479
5285,0.484
5290,0.49
5295,0.491
5300,0.487
5305,0.483
5310,0.477
5315,0.474
5320,0.475
5325,0.472
5330,0.469
5335,0.469
5340,0.471
5345,0.473
5350,0.477
5355,0.478
5360,0.471
5365,0.464
5370,0.46
5375,0.462
5380,0.464
5385,0.465
5390,0.465
5395,0.46
5400,0.455
5405,0.452
5410,0.452
5415,0.454
5420,0.453
5425,0.45
5430,0.447
5435,0.447
5440,0.448
5445,0.448
5450,0.448
5455,0.448
5460,0.447
5465,0.446
5470,0.443
5475,0.441
5480,0.441
5485,0.442
5490,0.439
5495,0.437
5500,0.436
5505,0.433
5510,0.429
5515,0.432
5520,0.432
5525,0.429
5530,0.426
5535,0.427
5540,0.425
5545,0.424
5550,0.428
5555,0.428
5560,0.427
5565,0.423
5570,0.421
5575,0.421
5580,0.42
5585,0.417
5590,0.415
5595,0.411
5600,0.41
5605,0.411
5610,0.41
5615,0.407
5620,0.407
5625,0.408
5630,0.408
5635,0.408
5640,0.408
5645,0.406
5650,0.403
5655,0.399
5660,0.395
5665,0.396
5670,0.398
5675,0.398
5680,0.395
5685,0.391
5690,0.392
5695,0.39
5700,0.389
5705,0.389
5710,0.39
5715,0.392
5720,0.391
5725,0.389
5730,0.388
5735,0.386
5740,0.384
5745,0.381
5750,0.379
5755,0.379
5760,0.382
5765,0.38
5770,0.377
5775,0.374
5780,0.37
5785,0.37
5790,0.371
5795,0.367
5800,0.367
5805,0.368
5810,0.367
5815,0.367
5820,0.368
5825,0.37
5830,0.371
5835,0.37
5840,0.367
5845,0.365
5850,0.365
5855,0.364
5860,0.365
5865,0.364
5870,0.362
5875,0.359
5880,0.356
5885,0.348
5890,0.342
5895,0.342
5900,0.35
5905,0.351
5910,0.35
5915,0.35
5920,0.349
5925,0.347
5930,0.347
5935,0.347
5940,0.344
5945,0.341
5950,0.34
5955,0.34
5960,0.34
5965,0.34
5970,0.34
5975,0.338
5980,0.337
5985,0.337
5990,0.335
5995,0.336
6000,0.336
6005,0.335
6010,0.333
6015,0.332
6020,0.331
6025,0.33
6030,0.33
6035,0.329
6040,0.328
6045,0.328
6050,0.327
6055,0.326
6060,0.326
6065,0.325
6070,0.325
6075,0.323
6080,0.32
6085,0.319
6090,0.319
6095,0.319
6100,0.318
6105,0.317
6110,0.317
6115,0.317
6120,0.316
6125,0.315
6130,0.316
6135,0.315
6140,0.312
6145,0.31
6150,0.308
6155,0.305
6160,0.305
6165,0.307
6170,0.306
6175,0.308
6180,0.307
6185,0.306
6190,0.306
6195,0.309
6200,0.307
6205,0.305
6210,0.303
6215,0.302
6220,0.3
6225,0.298
6230,0.296
6235,0.296
6240,0.296
6245,0.295
6250,0.296
6255,0.297
6260,0.296
6265,0.294
6270,0.291
6275,0.286
6280,0.281
6285,0.285
6290,0.288
6295,0.288
6300,0.286
6305,0.285
6310,0.284
6315,0.283
6320,0.284
6325,0.286
6330,0.285
6335,0.284
6340,0.283
6345,0.28
6350,0.279
6355,0.281
6360,0.282
6365,0.281
6370,0.279
6375,0.279
6380,0.28
6385,0.278
6390,0.277
6395,0.277
6400,0.278
6405,0.277
6410,0.275
6415,0.274
6420,0.273
6425,0.274
6430,0.274
6435,0.274
6440,0.274
6445,0.271
6450,0.27
6455,0.268
6460,0.268
6465,0.268
6470,0.267
6475,0.265
6480,0.264
6485,0.264
6490,0.262
6495,0.259
6500,0.261
6505,0.262
6510,0.259
6515,0.256
6520,0.254
6525,0.251
6530,0.248
6535,0.244
6540,0.237
6545,0.224
6550,0.209
6555,0.188
6560,0.164
6565,0.162
6570,0.186
6575,0.208
6580,0.223
6585,0.233
6590,0.24
6595,0.244
6600,0.246
6605,0.247
6610,0.248
6615,0.249
6620,0.249
6625,0.25
6630,0.249
6635,0.248
6640,0.249
6645,0.249
6650,0.248
6655,0.247
6660,0.246
6665,0.244
6670,0.244
6675,0.243
6680,0.243
6685,0.244
6690,0.244
6695,0.244
6700,0.242
6705,0.242
6710,0.241
6715,0.239
6720,0.239
6725,0.24
6730,0.239
6735,0.238
6740,0.237
6745,0.237
6750,0.236
6755,0.236
6760,0.235
6765,0.235
6770,0.234
6775,0.234
6780,0.234
6785,0.233
6790,0.234
6795,0.234
6800,0.233
6805,0.233
6810,0.232
6815,0.232
6820,0.232
6825,0.23
6830,0.23
6835,0.229
6840,0.228
6845,0.228
6850,0.229
6855,0.23
6860,0.229
6865,0.228
6870,0.227
6875,0.227
6880,0.228
6885,0.228
6890,0.226
6895,0.224
6900,0.221
6905,0.219
6910,0.22
6915,0.221
6920,0.223
6925,0.223
6930,0.221
6935,0.22
6940,0.218
6945,0.218
6950,0.219
6955,0.22
6960,0.22
6965,0.219
6970,0.218
6975,0.217
6980,0.217
6985,0.217
6990,0.215
6995,0.215
7000,0.215
7005,0.213
7010,0.213
7015,0.212
7020,0.211
7025,0.211
7030,0.211
7035,0.211
7040,0.21
7045,0.21
7050,0.211
7055,0.211
7060,0.211
7065,0.211
7070,0.21
7075,0.209
7080,0.209
7085,0.209
7090,0.208
7095,0.208
7100,0.207
7105,0.206
7110,0.205
7115,0.203
7120,0.204
7125,0.205
7130,0.203
7135,0.204
7140,0.205
7145,0.204
7150,0.204
7155,0.206
7160,0.205
7165,0.203
7170,0.198
7175,0.195
7180,0.192
7185,0.189
7190,0.189
7195,0.188
7200,0.187
7205,0.186
7210,0.194
7215,0.199
7220,0.2
7225,0.198
7230,0.195
7235,0.19
7240,0.19
7245,0.188
7250,0.188
7255,0.187
7260,0.19
7265,0.192
7270,0.192
7275,0.189
7280,0.187
7285,0.19
7290,0.187
7295,0.187
7300,0.188
7305,0.188
7310,0.187
7315,0.187
7320,0.186
7325,0.186
7330,0.185
7335,0.186
7340,0.186
7345,0.185
7350,0.185
7355,0.184
7360,0.184
7365,0.184
7370,0.183
7375,0.183
7380,0.183
7385,0.183
7390,0.184
7395,0.183
7400,0.183
7405,0.181
7410,0.179
7415,0.18
7420,0.183
7425,0.181
7430,0.182
7435,0.181
7440,0.18
7445,0.178
7450,0.177
7455,0.176
7460,0.174
7465,0.174
7470,0.174
7475,0.176
7480,0.177
7485,0.177
7490,0.176
7495,0.175
7500,0.174
7505,0.173
7510,0.173
7515,0.174
7520,0.175
7525,0.174
7530,0.174
7535,0.173
7540,0.173
7545,0.173
7550,0.173
7555,0.172
7560,0.171
7565,0.168
7570,0.168
7575,0.169
7580,0.173
7585,0.176
7590,0.177
7595,0.174
7600,0.168
7605,0.164
7610,0.163
7615,0.165
7620,0.169
7625,0.171
7630,0.169
7635,0.166
7640,0.162
7645,0.16
7650,0.161
7655,0.163
7660,0.164
7665,0.164
7670,0.164
7675,0.164
7680,0.164
7685,0.164
7690,0.162
7695,0.16
7700,0.158
7705,0.159
7710,0.16
7715,0.162
7720,0.164
7725,0.161
7730,0.16
7735,0.159
7740,0.158
7745,0.158
7750,0.16
7755,0.16
7760,0.16
7765,0.158
7770,0.153
7775,0.15
7780,0.155
7785,0.158
7790,0.159
7795,0.16
7800,0.159
7805,0.158
7810,0.156
7815,0.155
7820,0.154
7825,0.154
7830,0.153
7835,0.153
7840,0.154
7845,0.154
7850,0.155
7855,0.155
7860,0.153
7865,0.152
7870,0.152
7875,0.151
7880,0.151
7885,0.151
7890,0.151
7895,0.149
7900,0.149
7905,0.15
7910,0.149
7915,0.147
7920,0.146
7925,0.146
7930,0.146
7935,0.147
7940,0.147
7945,0.145
7950,0.144
7955,0.143
7960,0.143
7965,0.145
7970,0.147
7975,0.148
7980,0.147
7985,0.146
7990,0.146
7995,0.146
8000,0.146
8005,0.146
8010,0.145
8015,0.143
8020,0.142
8025,0.141
8030,0.141
8035,0.143
8040,0.144
8045,0.144
8050,0.144
8055,0.143
8060,0.142
8065,0.141
8070,0.14
8075,0.139
8080,0.139
8085,0.139
8090,0.139
8095,0.139
8100,0.139
8105,0.138
8110,0.137
8115,0.137
8120,0.136
8125,0.136
8130,0.135
8135,0.133
8140,0.133
8145,0.132
8150,0.13
8155,0.13
8160,0.129
8165,0.127
8170,0.128
8175,0.129
8180,0.127
8185,0.128
8190,0.127
8195,0.127
8200,0.127
8205,0.129
8210,0.13
8215,0.13
8220,0.129
8225,0.127
8230,0.123
8235,0.125
8240,0.127
8245,0.127
8250,0.128
8255,0.128
8260,0.127
8265,0.128
8270,0.128
8275,0.126
8280,0.126
8285,0.126
8290,0.126
8295,0.126
8300,0.125
8305,0.126
8310,0.126
8315,0.126
8320,0.126
8325,0.125
8330,0.125
8335,0.125
8340,0.125
8345,0.125
8350,0.125
8355,0.125
8360,0.125
8365,0.125
8370,0.124
8375,0.124
8380,0.124
8385,0.124
8390,0.124
8395,0.123
8400,0.123
8405,0.123
8410,0.122
8415,0.122
8420,0.122
8425,0.123
8430,0.123
8435,0.122
8440,0.12
8445,0.117
8450,0.119
8455,0.121
8460,0.12
8465,0.119
8470,0.119
8475,0.12
8480,0.121
8485,0.121
8490,0.121
8495,0.116
8500,0.114
8505,0.116
8510,0.118
8515,0.12
8520,0.121
8525,0.121
8530,0.12
8535,0.116
8540,0.109
8545,0.107
8550,0.112
8555,0.116
8560,0.12
8565,0.121
8570,0.121
8575,0.12
8580,0.119
8585,0.116
8590,0.112
8595,0.107
8600,0.106
8605,0.11
8610,0.115
8615,0.118
8620,0.12
8625,0.122
8630,0.121
8635,0.121
8640,0.119
8645,0.117
8650,0.114
8655,0.109
8660,0.1
8665,0.097
8670,0.101
8675,0.108
8680,0.111
8685,0.114
8690,0.117
8695,0.119
8700,0.12
8705,0.12
8710,0.118
8715,0.12
8720,0.119
8725,0.117
8730,0.114
8735,0.11
8740,0.104
8745,0.097
8750,0.092
8755,0.096
8760,0.103
8765,0.109
8770,0.113
8775,0.115
8780,0.118
8785,0.116
8790,0.116
8795,0.117
8800,0.117
8805,0.117
8810,0.12
8815,0.117
8820,0.117
8825,0.119
8830,0.117
8835,0.115
8840,0.111
8845,0.105
8850,0.102
8855,0.095
8860,0.088
8865,0.087
8870,0.094
8875,0.101
8880,0.105
8885,0.11
8890,0.113
8895,0.112
8900,0.113
8905,0.115
8910,0.115
8915,0.116
8920,0.119
8925,0.115
8930,0.119
8935,0.118
8940,0.119
8945,0.118
8950,0.116
8955,0.114
8960,0.112
8965,0.109
8970,0.106
8975,0.104
8980,0.102
8985,0.099
8990,0.095
8995,0.094
9000,0.093
9005,0.091
9010,0.089
9015,0.088
9020,0.089
9025,0.094
9030,0.099
9035,0.104
9040,0.107
9045,0.109
9050,0.111
9055,0.111
9060,0.111
9065,0.11
9070,0.109
9075,0.108
9080,0.108
9085,0.107
9090,0.107
9095,0.107
9100,0.109
9105,0.109
9110,0.11
9115,0.112
9120,0.11
9125,0.111
9130,0.109
9135,0.107
9140,0.106
9145,0.107
9150,0.106
9155,0.103
9160,0.104
9165,0.106
9170,0.107
9175,0.104
9180,0.105
9185,0.105
9190,0.102
9195,0.099
9200,0.097
9205,0.095
9210,0.091
9215,0.088
9220,0.085
9225,0.082
9230,0.081
9235,0.083
9240,0.086
9245,0.089
9250,0.093
9255,0.095
9260,0.097
9265,0.099
9270,0.104
9275,0.106
9280,0.105
9285,0.106
9290,0.105
9295,0.103
9300,0.1
9305,0.098
9310,0.096
9315,0.093
9320,0.092
9325,0.092
9330,0.094
9335,0.093
9340,0.093
9345,0.09
9350,0.096
9355,0.094
9360,0.095
9365,0.099
9370,0.096
9375,0.099
9380,0.099
9385,0.101
9390,0.106
9395,0.107
9400,0.105
9405,0.103
9410,0.101
9415,0.098
9420,0.097
9425,0.094
9430,0.089
9435,0.092
9440,0.088
9445,0.09
9450,0.095
9455,0.094
9460,0.092
9465,0.094
9470,0.095
9475,0.094
9480,0.091
9485,0.09
9490,0.093
9495,0.091
9500,0.087
9505,0.087
9510,0.089
9515,0.087
9520,0.08
9525,0.076
9530,0.075
9535,0.076
9540,0.073
9545,0.07
9550,0.071
9555,0.074
9560,0.076
9565,0.08
9570,0.083
9575,0.087
9580,0.089
9585,0.089
9590,0.089
9595,0.086
9600,0.09
9605,0.089
9610,0.09
9615,0.09
9620,0.088
9625,0.088
9630,0.09
9635,0.09
9640,0.09
9645,0.09
9650,0.091
9655,0.091
9660,0.089
9665,0.089
9670,0.089
9675,0.091
9680,0.09
9685,0.091
9690,0.091
9695,0.09
9700,0.089
9705,0.089
9710,0.09
9715,0.09
9720,0.089
9725,0.088
9730,0.086
9735,0.086
9740,0.086
9745,0.087
9750,0.087
9755,0.089
9760,0.089
9765,0.088
9770,0.089
9775,0.089
9780,0.088
9785,0.088
9790,0.087
9795,0.088
9800,0.088
9805,0.09
9810,0.09
9815,0.087
9820,0.087
9825,0.087
9830,0.088
9835,0.085
9840,0.089
9845,0.089
9850,0.087
9855,0.086
9860,0.086
9865,0.086
9870,0.088
9875,0.088
9880,0.086
9885,0.085
9890,0.084
9895,0.084
9900,0.085
9905,0.082
9910,0.082
9915,0.084
9920,0.083
9925,0.084
9930,0.085
9935,0.085
9940,0.084
9945,0.082
9950,0.08
9955,0.078
9960,0.08
9965,0.078
9970,0.079
9975,0.08
9980,0.079
9985,0.081
9990,0.077
9995,0.077
