wavelength,spectrum
1175,0.823
1180,0.92
1185,1.0
1190,0.912
1195,0.808
1200,0.789
1205,0.717
1210,0.532
1215,0.339
1220,0.552
1225,0.816
1230,0.894
1235,0.869
1240,0.864
1245,0.914
1250,0.891
1255,0.896
1260,0.936
1265,0.984
1270,0.997
1275,0.997
1280,0.985
1285,0.965
1290,0.987
1295,0.942
1300,0.871
1305,0.89
1310,0.941
1315,0.938
1320,0.916
1325,0.896
1330,0.883
1335,0.823
1340,0.811
1345,0.808
1350,0.828
1355,0.832
1360,0.801
1365,0.791
1370,0.802
1375,0.785
1380,0.77
1385,0.74
1390,0.674
1395,0.607
1400,0.606
1405,0.622
1410,0.66
1415,0.678
1420,0.653
1425,0.612
1430,0.611
1435,0.658
1440,0.648
1445,0.637
1450,0.626
1455,0.6
1460,0.6
1465,0.626
1470,0.64
1475,0.643
1480,0.639
1485,0.643
1490,0.65
1495,0.626
1500,0.576
1505,0.582
1510,0.61
1515,0.601
1520,0.606
1525,0.552
1530,0.492
1535,0.48
1540,0.454
1545,0.321
1550,0.299
1555,0.431
1560,0.459
1565,0.446
1570,0.463
1575,0.477
1580,0.468
1585,0.475
1590,0.474
1595,0.45
1600,0.443
1605,0.419
1610,0.389
1615,0.385
1620,0.378
1625,0.385
1630,0.385
1635,0.388
1640,0.388
1645,0.41
1650,0.431
1655,0.41
1660,0.392
1665,0.404
1670,0.391
1675,0.397
1680,0.435
1685,0.431
1690,0.41
1695,0.402
1700,0.394
1705,0.399
1710,0.402
1715,0.391
1720,0.358
1725,0.357
1730,0.38
1735,0.398
1740,0.397
1745,0.397
1750,0.389
1755,0.393
1760,0.397
1765,0.385
1770,0.384
1775,0.389
1780,0.386
1785,0.37
1790,0.336
1795,0.346
1800,0.36
1805,0.354
1810,0.353
1815,0.359
1820,0.369
1825,0.368
1830,0.365
1835,0.367
1840,0.353
1845,0.348
1850,0.343
1855,0.337
1860,0.337
1865,0.344
1870,0.335
1875,0.32
1880,0.321
1885,0.315
1890,0.312
1895,0.315
1900,0.317
1905,0.313
1910,0.304
1915,0.293
1920,0.283
1925,0.28
1930,0.294
1935,0.3
1940,0.299
1945,0.299
1950,0.297
1955,0.293
1960,0.284
1965,0.277
1970,0.271
1975,0.281
1980,0.285
1985,0.276
1990,0.266
1995,0.265
2000,0.267
2005,0.269
2010,0.263
2015,0.269
2020,0.265
2025,0.266
2030,0.265
2035,0.266
2040,0.266
2045,0.263
2050,0.263
2055,0.247
2060,0.231
2065,0.237
2070,0.249
2075,0.245
2080,0.241
2085,0.244
2090,0.244
2095,0.235
2100,0.232
2105,0.226
2110,0.227
2115,0.237
2120,0.233
2125,0.228
2130,0.227
2135,0.225
2140,0.229
2145,0.226
2150,0.22
2155,0.216
2160,0.215
2165,0.215
2170,0.208
2175,0.21
2180,0.21
2185,0.212
2190,0.21
2195,0.212
2200,0.207
2205,0.202
2210,0.197
2215,0.196
2220,0.192
2225,0.192
2230,0.193
2235,0.19
2240,0.187
2245,0.187
2250,0.187
2255,0.186
2260,0.185
2265,0.185
2270,0.182
2275,0.182
2280,0.181
2285,0.183
2290,0.186
2295,0.182
2300,0.173
2305,0.167
2310,0.173
2315,0.176
2320,0.176
2325,0.175
2330,0.176
2335,0.182
2340,0.178
2345,0.174
2350,0.172
2355,0.172
2360,0.176
2365,0.179
2370,0.178
2375,0.174
2380,0.171
2385,0.167
2390,0.159
2395,0.157
2400,0.159
2405,0.167
2410,0.166
2415,0.166
2420,0.168
2425,0.164
2430,0.166
2435,0.168
2440,0.166
2445,0.161
2450,0.163
2455,0.165
2460,0.163
2465,0.168
2470,0.165
2475,0.158
2480,0.158
2485,0.158
2490,0.156
2495,0.157
2500,0.158
2505,0.156
2510,0.155
2515,0.147
2520,0.147
2525,0.147
2530,0.153
2535,0.158
2540,0.152
2545,0.148
2550,0.152
2555,0.151
2560,0.149
2565,0.148
2570,0.148
2575,0.148
2580,0.129
2585,0.127
2590,0.138
2595,0.143
2600,0.144
2605,0.14
2610,0.143
2615,0.147
2620,0.144
2625,0.148
2630,0.144
2635,0.145
2640,0.144
2645,0.14
2650,0.14
2655,0.141
2660,0.143
2665,0.136
2670,0.134
2675,0.136
2680,0.134
2685,0.132
2690,0.135
2695,0.129
2700,0.126
2705,0.13
2710,0.134
2715,0.128
2720,0.128
2725,0.125
2730,0.125
2735,0.123
2740,0.121
2745,0.122
2750,0.124
2755,0.124
2760,0.124
2765,0.127
2770,0.123
2775,0.12
2780,0.118
2785,0.113
2790,0.114
2795,0.117
2800,0.111
2805,0.108
2810,0.112
2815,0.116
2820,0.118
2825,0.115
2830,0.11
2835,0.109
2840,0.113
2845,0.111
2850,0.111
2855,0.109
2860,0.108
2865,0.11
2870,0.109
2875,0.109
2880,0.109
2885,0.109
2890,0.109
2895,0.11
2900,0.11
2905,0.106
2910,0.105
2915,0.106
2920,0.105
2925,0.105
2930,0.105
2935,0.105
2940,0.103
2945,0.102
2950,0.102
2955,0.103
2960,0.103
2965,0.102
2970,0.104
2975,0.102
2980,0.102
2985,0.099
2990,0.097
2995,0.096
3000,0.097
3005,0.097
3010,0.098
3015,0.095
3020,0.095
3025,0.092
3030,0.09
3035,0.092
3040,0.09
3045,0.088
3050,0.088
3055,0.092
3060,0.092
3065,0.091
3070,0.089
3075,0.089
3080,0.089
3085,0.091
3090,0.09
3095,0.088
3100,0.088
3105,0.09
3110,0.089
3115,0.087
3120,0.086
3125,0.087
3130,0.088
3135,0.09
3140,0.089
3145,0.09
3150,0.09
3155,0.088
3160,0.083
3165,0.085
3170,0.084
3175,0.085
3180,0.081
3185,0.081
3190,0.081
3195,0.082
3200,0.08
3205,0.081
3210,0.081
3215,0.081
3220,0.08
3225,0.08
3230,0.08
3235,0.081
3240,0.081
3245,0.08
3250,0.078
3255,0.076
3260,0.075
3265,0.075
3270,0.075
3275,0.073
3280,0.071
3285,0.07
3290,0.071
3295,0.072
3300,0.071
3305,0.07
3310,0.068
3315,0.069
3320,0.07
3325,0.071
3330,0.071
3335,0.07
3340,0.07
3345,0.07
3350,0.07
3355,0.069
3360,0.068
3365,0.068
3370,0.068
3375,0.068
3380,0.067
3385,0.066
3390,0.066
3395,0.065
3400,0.065
3405,0.064
3410,0.063
3415,0.063
3420,0.063
3425,0.063
3430,0.062
3435,0.061
3440,0.061
3445,0.062
3450,0.063
3455,0.062
3460,0.062
3465,0.062
3470,0.061
3475,0.061
3480,0.06
3485,0.06
3490,0.06
3495,0.061
3500,0.062
3505,0.062
3510,0.061
3515,0.061
3520,0.061
3525,0.061
3530,0.06
3535,0.06
3540,0.06
3545,0.06
3550,0.059
3555,0.059
3560,0.058
3565,0.058
3570,0.057
3575,0.056
3580,0.056
3585,0.055
3590,0.055
3595,0.055
3600,0.055
3605,0.054
3610,0.055
3615,0.056
3620,0.055
3625,0.055
3630,0.054
3635,0.054
3640,0.054
3645,0.055
3650,0.055
3655,0.055
3660,0.055
3665,0.054
3670,0.054
3675,0.054
3680,0.053
3685,0.053
3690,0.053
3695,0.052
3700,0.051
3705,0.05
3710,0.05
3715,0.05
3720,0.05
3725,0.05
3730,0.05
3735,0.049
3740,0.051
3745,0.05
3750,0.047
3755,0.047
3760,0.048
3765,0.048
3770,0.045
3775,0.048
3780,0.051
3785,0.052
3790,0.051
3795,0.046
3800,0.046
3805,0.05
3810,0.053
3815,0.052
3820,0.05
3825,0.051
3830,0.047
3835,0.043
3840,0.047
3845,0.05
3850,0.05
3855,0.05
3860,0.05
3865,0.049
3870,0.049
3875,0.048
3880,0.046
3885,0.041
3890,0.04
3895,0.045
3900,0.048
3905,0.048
3910,0.047
3915,0.047
3920,0.046
3925,0.045
3930,0.045
3935,0.045
3940,0.046
3945,0.046
3950,0.046
3955,0.045
3960,0.042
3965,0.038
3970,0.034
3975,0.039
3980,0.042
3985,0.043
3990,0.043
3995,0.043
4000,0.042
4005,0.042
4010,0.042
4015,0.041
4020,0.04
4025,0.038
4030,0.039
4035,0.041
4040,0.041
4045,0.041
4050,0.041
4055,0.04
4060,0.04
4065,0.039
4070,0.038
4075,0.038
4080,0.039
4085,0.038
4090,0.037
4095,0.034
4100,0.03
4105,0.032
4110,0.036
4115,0.036
4120,0.036
4125,0.037
4130,0.037
4135,0.037
4140,0.036
4145,0.036
4150,0.036
4155,0.036
4160,0.036
4165,0.036
4170,0.035
4175,0.035
4180,0.035
4185,0.034
4190,0.034
4195,0.034
4200,0.033
4205,0.034
4210,0.034
4215,0.034
4220,0.034
4225,0.034
4230,0.034
4235,0.033
4240,0.033
4245,0.033
4250,0.033
4255,0.033
4260,0.032
4265,0.032
4270,0.032
4275,0.032
4280,0.032
4285,0.032
4290,0.032
4295,0.032
4300,0.032
4305,0.032
4310,0.032
4315,0.031
4320,0.031
4325,0.031
4330,0.03
4335,0.027
4340,0.024
4345,0.026
4350,0.029
4355,0.03
4360,0.03
4365,0.03
4370,0.03
4375,0.03
4380,0.029
4385,0.029
4390,0.028
4395,0.029
4400,0.029
4405,0.029
4410,0.028
4415,0.028
4420,0.028
4425,0.027
4430,0.027
4435,0.027
4440,0.027
4445,0.028
4450,0.028
4455,0.028
4460,0.027
4465,0.027
4470,0.025
4475,0.026
4480,0.027
4485,0.027
4490,0.027
4495,0.027
4500,0.027
4505,0.027
4510,0.026
4515,0.026
4520,0.026
4525,0.026
4530,0.026
4535,0.026
4540,0.025
4545,0.025
4550,0.026
4555,0.026
4560,0.026
4565,0.026
4570,0.025
4575,0.025
4580,0.025
4585,0.025
4590,0.025
4595,0.025
4600,0.025
4605,0.025
4610,0.025
4615,0.025
4620,0.025
4625,0.024
4630,0.024
4635,0.024
4640,0.024
4645,0.023
4650,0.023
4655,0.024
4660,0.024
4665,0.024
4670,0.024
4675,0.024
4680,0.023
4685,0.022
4690,0.022
4695,0.023
4700,0.023
4705,0.023
4710,0.023
4715,0.023
4720,0.023
4725,0.022
4730,0.023
4735,0.023
4740,0.023
4745,0.022
4750,0.022
4755,0.022
4760,0.022
4765,0.022
4770,0.022
4775,0.022
4780,0.021
4785,0.022
4790,0.022
4795,0.022
4800,0.021
4805,0.021
4810,0.021
4815,0.021
4820,0.021
4825,0.021
4830,0.021
4835,0.021
4840,0.021
4845,0.021
4850,0.02
4855,0.018
4860,0.016
4865,0.017
4870,0.019
4875,0.019
4880,0.019
4885,0.019
4890,0.02
4895,0.02
4900,0.02
4905,0.02
4910,0.02
4915,0.02
4920,0.019
4925,0.019
4930,0.02
4935,0.019
4940,0.019
4945,0.02
4950,0.019
4955,0.019
4960,0.019
4965,0.019
4970,0.019
4975,0.019
4980,0.019
4985,0.019
4990,0.019
4995,0.019
5000,0.018
5005,0.018
5010,0.018
5015,0.018
5020,0.018
5025,0.018
5030,0.018
5035,0.018
5040,0.018
5045,0.018
5050,0.018
5055,0.018
5060,0.017
5065,0.017
5070,0.017
5075,0.017
5080,0.017
5085,0.017
5090,0.017
5095,0.017
5100,0.017
5105,0.017
5110,0.017
5115,0.017
5120,0.017
5125,0.017
5130,0.017
5135,0.017
5140,0.017
5145,0.017
5150,0.016
5155,0.016
5160,0.016
5165,0.016
5170,0.016
5175,0.016
5180,0.016
5185,0.016
5190,0.016
5195,0.016
5200,0.016
5205,0.016
5210,0.016
5215,0.016
5220,0.015
5225,0.015
5230,0.015
5235,0.015
5240,0.015
5245,0.015
5250,0.015
5255,0.015
5260,0.015
5265,0.015
5270,0.015
5275,0.015
5280,0.015
5285,0.015
5290,0.014
5295,0.014
5300,0.014
5305,0.014
5310,0.014
5315,0.014
5320,0.014
5325,0.014
5330,0.014
5335,0.014
5340,0.014
5345,0.014
5350,0.014
5355,0.014
5360,0.014
5365,0.014
5370,0.014
5375,0.014
5380,0.014
5385,0.013
5390,0.013
5395,0.013
5400,0.013
5405,0.013
5410,0.012
5415,0.013
5420,0.013
5425,0.013
5430,0.013
5435,0.013
5440,0.013
5445,0.013
5450,0.013
5455,0.013
5460,0.013
5465,0.013
5470,0.013
5475,0.013
5480,0.012
5485,0.012
5490,0.012
5495,0.012
5500,0.012
5505,0.012
5510,0.012
5515,0.012
5520,0.012
5525,0.012
5530,0.012
5535,0.012
5540,0.012
5545,0.012
5550,0.012
5555,0.012
5560,0.012
5565,0.012
5570,0.012
5575,0.012
5580,0.012
5585,0.012
5590,0.011
5595,0.011
5600,0.011
5605,0.011
5610,0.011
5615,0.011
5620,0.011
5625,0.011
5630,0.011
5635,0.011
5640,0.011
5645,0.011
5650,0.011
5655,0.011
5660,0.011
5665,0.011
5670,0.011
5675,0.011
5680,0.011
5685,0.011
5690,0.011
5695,0.011
5700,0.01
5705,0.01
5710,0.01
5715,0.01
5720,0.01
5725,0.01
5730,0.01
5735,0.01
5740,0.01
5745,0.01
5750,0.01
5755,0.01
5760,0.01
5765,0.01
5770,0.01
5775,0.01
5780,0.009
5785,0.009
5790,0.01
5795,0.01
5800,0.009
5805,0.009
5810,0.009
5815,0.009
5820,0.01
5825,0.01
5830,0.01
5835,0.009
5840,0.009
5845,0.009
5850,0.009
5855,0.009
5860,0.01
5865,0.009
5870,0.009
5875,0.009
5880,0.009
5885,0.009
5890,0.008
5895,0.008
5900,0.009
5905,0.009
5910,0.009
5915,0.009
5920,0.009
5925,0.009
5930,0.009
5935,0.009
5940,0.009
5945,0.009
5950,0.009
5955,0.009
5960,0.009
5965,0.009
5970,0.009
5975,0.009
5980,0.009
5985,0.009
5990,0.009
5995,0.009
6000,0.009
6005,0.008
6010,0.008
6015,0.008
6020,0.008
6025,0.008
6030,0.008
6035,0.008
6040,0.008
6045,0.008
6050,0.008
6055,0.008
6060,0.008
6065,0.008
6070,0.008
6075,0.008
6080,0.008
6085,0.008
6090,0.008
6095,0.008
6100,0.008
6105,0.008
6110,0.008
6115,0.008
6120,0.008
6125,0.008
6130,0.008
6135,0.008
6140,0.008
6145,0.008
6150,0.008
6155,0.008
6160,0.008
6165,0.008
6170,0.008
6175,0.008
6180,0.008
6185,0.008
6190,0.008
6195,0.008
6200,0.008
6205,0.008
6210,0.008
6215,0.008
6220,0.008
6225,0.008
6230,0.007
6235,0.007
6240,0.007
6245,0.008
6250,0.007
6255,0.007
6260,0.007
6265,0.007
6270,0.007
6275,0.007
6280,0.007
6285,0.007
6290,0.007
6295,0.007
6300,0.007
6305,0.007
6310,0.007
6315,0.007
6320,0.007
6325,0.007
6330,0.007
6335,0.007
6340,0.007
6345,0.007
6350,0.007
6355,0.007
6360,0.007
6365,0.007
6370,0.007
6375,0.007
6380,0.007
6385,0.007
6390,0.007
6395,0.007
6400,0.007
6405,0.007
6410,0.007
6415,0.007
6420,0.007
6425,0.007
6430,0.007
6435,0.007
6440,0.007
6445,0.007
6450,0.007
6455,0.007
6460,0.007
6465,0.006
6470,0.006
6475,0.006
6480,0.006
6485,0.006
6490,0.006
6495,0.006
6500,0.006
6505,0.006
6510,0.006
6515,0.006
6520,0.006
6525,0.006
6530,0.006
6535,0.006
6540,0.006
6545,0.006
6550,0.006
6555,0.006
6560,0.005
6565,0.005
6570,0.006
6575,0.006
6580,0.006
6585,0.006
6590,0.006
6595,0.006
6600,0.006
6605,0.006
6610,0.006
6615,0.006
6620,0.006
6625,0.006
6630,0.006
6635,0.006
6640,0.006
6645,0.006
6650,0.006
6655,0.006
6660,0.006
6665,0.006
6670,0.006
6675,0.006
6680,0.006
6685,0.006
6690,0.006
6695,0.006
6700,0.006
6705,0.006
6710,0.006
6715,0.006
6720,0.006
6725,0.006
6730,0.006
6735,0.006
6740,0.006
6745,0.006
6750,0.006
6755,0.006
6760,0.006
6765,0.006
6770,0.006
6775,0.005
6780,0.005
6785,0.005
6790,0.005
6795,0.005
6800,0.005
6805,0.005
6810,0.005
6815,0.005
6820,0.005
6825,0.005
6830,0.005
6835,0.005
6840,0.005
6845,0.005
6850,0.005
6855,0.005
6860,0.005
6865,0.005
6870,0.005
6875,0.005
6880,0.005
6885,0.005
6890,0.005
6895,0.005
6900,0.005
6905,0.005
6910,0.005
6915,0.005
6920,0.005
6925,0.005
6930,0.005
6935,0.005
6940,0.005
6945,0.005
6950,0.005
6955,0.005
6960,0.005
6965,0.005
6970,0.005
6975,0.005
6980,0.005
6985,0.005
6990,0.005
6995,0.005
7000,0.005
7005,0.005
7010,0.005
7015,0.005
7020,0.005
7025,0.005
7030,0.005
7035,0.005
7040,0.005
7045,0.005
7050,0.005
7055,0.005
7060,0.005
7065,0.004
7070,0.005
7075,0.005
7080,0.005
7085,0.005
7090,0.005
7095,0.005
7100,0.005
7105,0.005
7110,0.005
7115,0.005
7120,0.005
7125,0.005
7130,0.005
7135,0.005
7140,0.005
7145,0.005
7150,0.005
7155,0.005
7160,0.005
7165,0.005
7170,0.004
7175,0.004
7180,0.004
7185,0.004
7190,0.004
7195,0.004
7200,0.004
7205,0.004
7210,0.005
7215,0.005
7220,0.005
7225,0.005
7230,0.004
7235,0.004
7240,0.004
7245,0.004
7250,0.004
7255,0.004
7260,0.004
7265,0.004
7270,0.004
7275,0.004
7280,0.004
7285,0.004
7290,0.004
7295,0.004
7300,0.004
7305,0.004
7310,0.004
7315,0.004
7320,0.004
7325,0.004
7330,0.004
7335,0.004
7340,0.004
7345,0.004
7350,0.004
7355,0.004
7360,0.004
7365,0.004
7370,0.004
7375,0.004
7380,0.004
7385,0.004
7390,0.004
7395,0.004
7400,0.004
7405,0.004
7410,0.004
7415,0.004
7420,0.004
7425,0.004
7430,0.004
7435,0.004
7440,0.004
7445,0.004
7450,0.004
7455,0.004
7460,0.004
7465,0.004
7470,0.004
7475,0.004
7480,0.004
7485,0.004
7490,0.004
7495,0.004
7500,0.004
7505,0.004
7510,0.004
7515,0.004
7520,0.004
7525,0.004
7530,0.004
7535,0.004
7540,0.004
7545,0.004
7550,0.004
7555,0.004
7560,0.004
7565,0.004
7570,0.004
7575,0.004
7580,0.004
7585,0.004
7590,0.004
7595,0.004
7600,0.004
7605,0.004
7610,0.004
7615,0.004
7620,0.004
7625,0.004
7630,0.004
7635,0.003
7640,0.003
7645,0.003
7650,0.003
7655,0.003
7660,0.003
7665,0.003
7670,0.003
7675,0.003
7680,0.003
7685,0.003
7690,0.003
7695,0.003
7700,0.003
7705,0.003
7710,0.003
7715,0.003
7720,0.003
7725,0.003
7730,0.003
7735,0.003
7740,0.003
7745,0.003
7750,0.003
7755,0.003
7760,0.003
7765,0.003
7770,0.003
7775,0.003
7780,0.003
7785,0.003
7790,0.003
7795,0.003
7800,0.003
7805,0.003
7810,0.003
7815,0.003
7820,0.003
7825,0.003
7830,0.003
7835,0.003
7840,0.003
7845,0.003
7850,0.003
7855,0.003
7860,0.003
7865,0.003
7870,0.003
7875,0.003
7880,0.003
7885,0.003
7890,0.003
7895,0.003
7900,0.003
7905,0.003
7910,0.003
7915,0.003
7920,0.003
7925,0.003
7930,0.003
7935,0.003
7940,0.003
7945,0.003
7950,0.003
7955,0.003
7960,0.003
7965,0.003
7970,0.003
7975,0.003
7980,0.003
7985,0.003
7990,0.003
7995,0.003
8000,0.003
8005,0.003
8010,0.003
8015,0.003
8020,0.003
8025,0.003
8030,0.003
8035,0.003
8040,0.003
8045,0.003
8050,0.003
8055,0.003
8060,0.003
8065,0.003
8070,0.003
8075,0.003
8080,0.003
8085,0.003
8090,0.003
8095,0.003
8100,0.003
8105,0.003
8110,0.003
8115,0.003
8120,0.003
8125,0.003
8130,0.003
8135,0.003
8140,0.003
8145,0.003
8150,0.003
8155,0.003
8160,0.003
8165,0.003
8170,0.003
8175,0.003
8180,0.003
8185,0.003
8190,0.003
8195,0.003
8200,0.003
8205,0.003
8210,0.003
8215,0.003
8220,0.003
8225,0.003
8230,0.003
8235,0.003
8240,0.003
8245,0.003
8250,0.003
8255,0.003
8260,0.003
8265,0.003
8270,0.003
8275,0.003
8280,0.003
8285,0.003
8290,0.003
8295,0.003
8300,0.003
8305,0.003
8310,0.003
8315,0.003
8320,0.002
8325,0.002
8330,0.002
8335,0.002
8340,0.002
8345,0.002
8350,0.002
8355,0.002
8360,0.002
8365,0.002
8370,0.002
8375,0.002
8380,0.002
8385,0.002
8390,0.002
8395,0.002
8400,0.002
8405,0.002
8410,0.002
8415,0.002
8420,0.002
8425,0.002
8430,0.002
8435,0.002
8440,0.002
8445,0.002
8450,0.002
8455,0.002
8460,0.002
8465,0.002
8470,0.002
8475,0.002
8480,0.002
8485,0.002
8490,0.002
8495,0.002
8500,0.002
8505,0.002
8510,0.002
8515,0.002
8520,0.002
8525,0.002
8530,0.002
8535,0.002
8540,0.002
8545,0.002
8550,0.002
8555,0.002
8560,0.002
8565,0.002
8570,0.002
8575,0.002
8580,0.002
8585,0.002
8590,0.002
8595,0.002
8600,0.002
8605,0.002
8610,0.002
8615,0.002
8620,0.002
8625,0.002
8630,0.002
8635,0.002
8640,0.002
8645,0.002
8650,0.002
8655,0.002
8660,0.002
8665,0.002
8670,0.002
8675,0.002
8680,0.002
8685,0.002
8690,0.002
8695,0.002
8700,0.002
8705,0.002
8710,0.002
8715,0.002
8720,0.002
8725,0.002
8730,0.002
8735,0.002
8740,0.002
8745,0.002
8750,0.002
8755,0.002
8760,0.002
8765,0.002
8770,0.002
8775,0.002
8780,0.002
8785,0.002
8790,0.002
8795,0.002
8800,0.002
8805,0.002
8810,0.002
8815,0.002
8820,0.002
8825,0.002
8830,0.002
8835,0.002
8840,0.002
8845,0.002
8850,0.002
8855,0.002
8860,0.002
8865,0.002
8870,0.002
8875,0.002
8880,0.002
8885,0.002
8890,0.002
8895,0.002
8900,0.002
8905,0.002
8910,0.002
8915,0.002
8920,0.002
8925,0.002
8930,0.002
8935,0.002
8940,0.002
8945,0.002
8950,0.002
8955,0.002
8960,0.002
8965,0.002
8970,0.002
8975,0.002
8980,0.002
8985,0.002
8990,0.002
8995,0.002
9000,0.002
9005,0.002
9010,0.002
9015,0.002
9020,0.002
9025,0.002
9030,0.002
9035,0.002
9040,0.002
9045,0.002
9050,0.002
9055,0.002
9060,0.002
9065,0.002
9070,0.002
9075,0.002
9080,0.002
9085,0.002
9090,0.002
9095,0.002
9100,0.002
9105,0.002
9110,0.002
9115,0.002
9120,0.002
9125,0.002
9130,0.002
9135,0.002
9140,0.002
9145,0.002
9150,0.002
9155,0.002
9160,0.002
9165,0.002
9170,0.002
9175,0.002
9180,0.002
9185,0.002
9190,0.002
9195,0.002
9200,0.002
9205,0.002
9210,0.002
9215,0.002
9220,0.002
9225,0.002
9230,0.002
9235,0.002
9240,0.002
9245,0.002
9250,0.002
9255,0.002
9260,0.002
9265,0.002
9270,0.002
9275,0.002
9280,0.002
9285,0.002
9290,0.002
9295,0.002
9300,0.002
9305,0.002
9310,0.002
9315,0.002
9320,0.002
9325,0.002
9330,0.002
9335,0.001
9340,0.001
9345,0.001
9350,0.002
9355,0.001
9360,0.002
9365,0.002
9370,0.002
9375,0.002
9380,0.002
9385,0.002
9390,0.002
9395,0.002
9400,0.002
9405,0.002
9410,0.002
9415,0.002
9420,0.002
9425,0.001
9430,0.001
9435,0.001
9440,0.001
9445,0.002
9450,0.002
9455,0.002
9460,0.002
9465,0.002
9470,0.002
9475,0.002
9480,0.002
9485,0.002
9490,0.002
9495,0.002
9500,0.002
9505,0.002
9510,0.002
9515,0.001
9520,0.001
9525,0.001
9530,0.001
9535,0.001
9540,0.001
9545,0.001
9550,0.001
9555,0.001
9560,0.001
9565,0.001
9570,0.002
9575,0.002
9580,0.002
9585,0.002
9590,0.002
9595,0.002
9600,0.001
9605,0.002
9610,0.002
9615,0.001
9620,0.001
9625,0.001
9630,0.001
9635,0.002
9640,0.001
9645,0.001
9650,0.001
9655,0.002
9660,0.001
9665,0.001
9670,0.001
9675,0.001
9680,0.001
9685,0.001
9690,0.001
9695,0.001
9700,0.001
9705,0.001
9710,0.001
9715,0.001
9720,0.001
9725,0.001
9730,0.001
9735,0.001
9740,0.001
9745,0.001
9750,0.001
9755,0.001
9760,0.001
9765,0.001
9770,0.001
9775,0.001
9780,0.001
9785,0.001
9790,0.001
9795,0.001
9800,0.001
9805,0.001
9810,0.001
9815,0.001
9820,0.001
9825,0.001
9830,0.001
9835,0.001
9840,0.001
9845,0.001
9850,0.001
9855,0.001
9860,0.001
9865,0.001
9870,0.001
9875,0.001
9880,0.001
9885,0.001
9890,0.001
9895,0.001
9900,0.001
9905,0.001
9910,0.001
9915,0.001
9920,0.001
9925,0.001
9930,0.001
9935,0.001
9940,0.001
9945,0.001
9950,0.001
9955,0.001
9960,0.001
9965,0.001
9970,0.001
9975,0.001
9980,0.001
9985,0.001
9990,0.001
9995,0.001
