wavelength,spectrum
1160,0.878
1165,0.849
1170,0.75
1175,0.691
1180,0.684
1185,0.517
1190,0.29
1195,0.198
1200,0.161
1205,0.083
1210,0.043
1215,0.04
1220,0.047
1225,0.09
1230,0.222
1235,0.39
1240,0.554
1245,0.659
1250,0.704
1255,0.692
1260,0.592
1265,0.638
1270,0.804
1275,0.851
1280,0.904
1285,0.937
1290,0.896
1295,0.824
1300,0.703
1305,0.614
1310,0.73
1315,0.959
1325,0.98
1330,0.897
1335,0.85
1340,0.975
1350,0.989
1355,0.981
1360,0.949
1365,0.899
1370,0.895
1375,0.918
1380,0.929
1385,0.925
1390,0.929
1395,0.904
1400,0.917
1405,0.894
1410,0.869
1415,0.884
1420,0.894
1425,0.917
1430,0.903
1435,0.886
1440,0.922
1445,0.957
1450,0.992
1460,0.993
1465,0.96
1470,0.941
1475,0.933
1480,0.921
1485,0.917
1490,0.948
1495,0.985
1500,1.0
1505,0.939
1510,0.898
1515,0.91
1520,0.92
1525,0.88
1530,0.837
1535,0.846
1540,0.913
1545,0.921
1550,0.886
1555,0.863
1560,0.827
1565,0.82
1570,0.827
1575,0.826
1580,0.835
1585,0.836
1590,0.833
1595,0.828
1600,0.801
1605,0.769
1610,0.772
1615,0.777
1620,0.77
1625,0.763
1630,0.763
1635,0.756
1640,0.737
1645,0.734
1650,0.726
1655,0.695
1660,0.699
1665,0.718
1670,0.698
1675,0.697
1680,0.717
1685,0.721
1690,0.724
1695,0.733
1700,0.729
1705,0.706
1710,0.696
1715,0.675
1720,0.659
1725,0.651
1730,0.659
1735,0.675
1740,0.69
1745,0.695
1750,0.699
1755,0.706
1760,0.678
1765,0.662
1770,0.669
1775,0.673
1780,0.666
1785,0.608
1790,0.585
1795,0.666
1800,0.694
1805,0.692
1810,0.691
1815,0.691
1820,0.685
1825,0.671
1830,0.658
1835,0.652
1840,0.643
1845,0.632
1850,0.617
1855,0.6
1860,0.599
1865,0.614
1870,0.632
1875,0.638
1880,0.628
1885,0.612
1890,0.602
1895,0.601
1900,0.605
1905,0.597
1910,0.588
1915,0.582
1920,0.584
1925,0.585
1930,0.588
1935,0.598
1940,0.6
1945,0.603
1950,0.595
1955,0.574
1960,0.563
1965,0.566
1970,0.56
1975,0.572
1980,0.578
1985,0.575
1990,0.568
1995,0.547
2000,0.539
2005,0.548
2010,0.542
2015,0.54
2020,0.545
2025,0.541
2030,0.534
2035,0.527
2040,0.528
2045,0.531
2050,0.545
2055,0.539
2060,0.509
2065,0.511
2070,0.509
2075,0.523
2080,0.532
2085,0.522
2090,0.526
2095,0.52
2100,0.502
2105,0.49
2110,0.496
2115,0.504
2120,0.496
2125,0.498
2130,0.506
2135,0.48
2140,0.464
2145,0.467
2150,0.472
2155,0.489
2160,0.478
2165,0.456
2170,0.442
2175,0.44
2180,0.441
2185,0.451
2190,0.461
2195,0.463
2200,0.457
2205,0.443
2210,0.43
2215,0.421
2220,0.421
2225,0.421
2230,0.399
2235,0.419
2240,0.43
2245,0.413
2250,0.405
2255,0.413
2260,0.412
2265,0.408
2270,0.409
2275,0.432
2280,0.447
2285,0.424
2290,0.423
2295,0.426
2300,0.42
2305,0.42
2310,0.403
2315,0.405
2320,0.405
2325,0.402
2330,0.388
2335,0.384
2340,0.377
2345,0.367
2350,0.373
2355,0.376
2360,0.387
2365,0.379
2370,0.381
2375,0.381
2380,0.363
2385,0.345
2390,0.344
2395,0.35
2400,0.354
2405,0.358
2410,0.346
2415,0.355
2420,0.369
2425,0.364
2430,0.371
2435,0.363
2440,0.36
2445,0.369
2450,0.372
2455,0.381
2460,0.385
2465,0.383
2470,0.369
2475,0.358
2480,0.361
2485,0.372
2490,0.365
2495,0.365
2500,0.383
2505,0.39
2510,0.373
2515,0.371
2520,0.365
2525,0.352
2530,0.359
2535,0.365
2540,0.354
2545,0.352
2550,0.354
2555,0.36
2560,0.361
2565,0.364
2570,0.376
2575,0.377
2580,0.335
2585,0.321
2590,0.352
2595,0.374
2600,0.372
2605,0.359
2610,0.354
2615,0.357
2620,0.367
2625,0.366
2630,0.355
2635,0.358
2640,0.365
2645,0.369
2650,0.379
2655,0.377
2660,0.37
2665,0.36
2670,0.35
2675,0.356
2680,0.367
2685,0.374
2690,0.37
2695,0.355
2700,0.341
2705,0.341
2710,0.342
2715,0.342
2720,0.344
2725,0.341
2730,0.341
2735,0.344
2740,0.341
2745,0.331
2750,0.33
2755,0.329
2760,0.329
2765,0.334
2770,0.328
2775,0.327
2780,0.335
2785,0.329
2790,0.33
2795,0.331
2800,0.311
2805,0.309
2810,0.327
2815,0.343
2820,0.351
2825,0.342
2830,0.325
2835,0.32
2840,0.329
2845,0.33
2850,0.333
2855,0.332
2860,0.335
2865,0.331
2870,0.323
2875,0.332
2880,0.327
2885,0.326
2890,0.327
2895,0.331
2900,0.332
2905,0.337
2910,0.338
2915,0.342
2920,0.337
2925,0.325
2930,0.324
2935,0.324
2940,0.315
2945,0.324
2950,0.328
2955,0.336
2960,0.333
2965,0.325
2970,0.321
2975,0.325
2980,0.327
2985,0.324
2990,0.32
2995,0.316
3000,0.317
3005,0.318
3010,0.32
3015,0.316
3020,0.307
3025,0.303
3030,0.303
3035,0.307
3040,0.302
3045,0.305
3050,0.303
3055,0.298
3060,0.299
3065,0.294
3070,0.294
3075,0.297
3080,0.301
3085,0.3
3090,0.302
3095,0.305
3100,0.307
3105,0.298
3110,0.295
3115,0.3
3120,0.304
3125,0.309
3130,0.307
3135,0.305
3140,0.299
3145,0.298
3150,0.305
3155,0.307
3160,0.297
3165,0.298
3170,0.302
3175,0.304
3180,0.296
3185,0.295
3190,0.298
3195,0.302
3200,0.304
3205,0.303
3210,0.3
3215,0.298
3220,0.295
3225,0.291
3230,0.287
3235,0.288
3240,0.289
3245,0.287
3250,0.286
3255,0.287
3260,0.288
3265,0.288
3270,0.287
3275,0.287
3280,0.286
3285,0.28
3290,0.276
3295,0.28
3300,0.284
3305,0.281
3310,0.278
3315,0.28
3320,0.284
3325,0.284
3330,0.282
3335,0.28
3340,0.278
3345,0.275
3350,0.275
3355,0.278
3360,0.28
3365,0.277
3370,0.274
3375,0.274
3380,0.275
3385,0.273
3390,0.271
3395,0.27
3400,0.27
3405,0.268
3410,0.266
3415,0.267
3420,0.268
3425,0.267
3430,0.265
3435,0.262
3440,0.261
3445,0.262
3450,0.264
3455,0.263
3460,0.261
3465,0.259
3470,0.258
3475,0.258
3480,0.258
3485,0.255
3490,0.253
3495,0.254
3500,0.255
3505,0.256
3510,0.256
3515,0.255
3520,0.255
3525,0.256
3530,0.255
3535,0.252
3540,0.249
3545,0.25
3550,0.251
3555,0.247
3560,0.243
3565,0.244
3570,0.246
3575,0.246
3580,0.246
3585,0.247
3590,0.248
3595,0.249
3600,0.248
3605,0.244
3610,0.24
3615,0.239
3620,0.239
3625,0.239
3630,0.239
3635,0.237
3640,0.236
3645,0.236
3650,0.236
3655,0.233
3660,0.23
3665,0.228
3670,0.229
3675,0.23
3680,0.23
3685,0.229
3690,0.228
3695,0.23
3700,0.234
3705,0.239
3710,0.245
3715,0.251
3720,0.256
3725,0.258
3730,0.266
3735,0.283
3740,0.302
3745,0.312
3750,0.32
3755,0.334
3760,0.341
3765,0.332
3770,0.326
3775,0.339
3780,0.364
3785,0.387
3790,0.39
3795,0.364
3800,0.345
3805,0.367
3810,0.413
3815,0.454
3820,0.463
3825,0.427
3830,0.376
3835,0.347
3840,0.355
3845,0.4
3850,0.452
3855,0.481
3860,0.491
3865,0.494
3870,0.49
3875,0.474
3880,0.44
3885,0.389
3890,0.353
3895,0.361
3900,0.402
3905,0.454
3910,0.493
3915,0.506
3920,0.505
3925,0.506
3930,0.509
3935,0.509
3940,0.51
3945,0.515
3950,0.513
3955,0.493
3960,0.452
3965,0.396
3970,0.357
3975,0.365
3980,0.409
3985,0.465
3990,0.508
3995,0.519
4000,0.514
4005,0.508
4010,0.503
4015,0.494
4020,0.487
4025,0.483
4030,0.483
4035,0.482
4040,0.482
4045,0.484
4050,0.485
4055,0.484
4060,0.482
4065,0.48
4070,0.478
4075,0.475
4080,0.469
4085,0.457
4090,0.429
4095,0.38
4100,0.339
4105,0.336
4110,0.366
4115,0.414
4120,0.454
4125,0.466
4130,0.46
4135,0.455
4140,0.453
4145,0.45
4150,0.447
4155,0.445
4160,0.443
4165,0.441
4170,0.438
4175,0.437
4180,0.436
4185,0.434
4190,0.432
4195,0.432
4200,0.432
4205,0.43
4210,0.429
4215,0.43
4220,0.431
4225,0.428
4230,0.426
4235,0.424
4240,0.424
4245,0.424
4250,0.423
4255,0.42
4260,0.417
4265,0.415
4270,0.412
4275,0.409
4280,0.406
4285,0.404
4290,0.403
4295,0.403
4300,0.402
4305,0.4
4310,0.399
4315,0.401
4320,0.397
4325,0.38
4330,0.348
4335,0.309
4340,0.283
4345,0.292
4350,0.322
4355,0.356
4360,0.381
4365,0.389
4370,0.386
4375,0.38
4380,0.375
4385,0.371
4390,0.369
4395,0.368
4400,0.368
4405,0.367
4410,0.365
4415,0.364
4420,0.362
4425,0.36
4430,0.358
4435,0.357
4440,0.356
4445,0.356
4450,0.355
4455,0.356
4460,0.355
4465,0.351
4470,0.345
4475,0.341
4480,0.34
4485,0.341
4490,0.344
4495,0.345
4500,0.345
4505,0.344
4510,0.342
4515,0.339
4520,0.338
4525,0.339
4530,0.341
4535,0.34
4540,0.338
4545,0.335
4550,0.333
4555,0.332
4560,0.333
4565,0.333
4570,0.332
4575,0.33
4580,0.328
4585,0.327
4590,0.326
4595,0.326
4600,0.326
4605,0.325
4610,0.325
4615,0.324
4620,0.323
4625,0.321
4630,0.32
4635,0.319
4640,0.319
4645,0.318
4650,0.317
4655,0.316
4660,0.315
4665,0.315
4670,0.314
4675,0.313
4680,0.313
4685,0.313
4690,0.312
4695,0.311
4700,0.309
4705,0.308
4710,0.308
4715,0.307
4720,0.307
4725,0.306
4730,0.305
4735,0.305
4740,0.304
4745,0.303
4750,0.302
4755,0.3
4760,0.299
4765,0.298
4770,0.297
4775,0.298
4780,0.299
4785,0.297
4790,0.295
4795,0.294
4800,0.294
4805,0.293
4810,0.292
4815,0.29
4820,0.288
4825,0.286
4830,0.286
4835,0.284
4840,0.28
4845,0.269
4850,0.252
4855,0.228
4860,0.213
4865,0.216
4870,0.235
4875,0.259
4880,0.276
4885,0.279
4890,0.275
4895,0.274
4900,0.274
4905,0.274
4910,0.271
4915,0.268
4920,0.264
4925,0.263
4930,0.264
4935,0.264
4940,0.263
4945,0.263
4950,0.262
4955,0.26
4960,0.259
4965,0.259
4970,0.259
4975,0.259
4980,0.258
4985,0.257
4990,0.256
4995,0.255
5000,0.254
5005,0.252
5010,0.25
5015,0.248
5020,0.247
5025,0.246
5030,0.246
5035,0.245
5040,0.243
5045,0.24
5050,0.236
5055,0.235
5060,0.236
5065,0.236
5070,0.236
5075,0.237
5080,0.237
5085,0.237
5090,0.236
5095,0.234
5100,0.232
5105,0.232
5110,0.232
5115,0.232
5120,0.231
5125,0.231
5130,0.231
5135,0.23
5140,0.23
5145,0.23
5150,0.229
5155,0.228
5160,0.227
5165,0.227
5170,0.227
5175,0.226
5180,0.224
5185,0.223
5190,0.222
5195,0.223
5200,0.223
5205,0.222
5210,0.221
5215,0.22
5220,0.219
5225,0.217
5230,0.216
5235,0.215
5240,0.215
5245,0.214
5250,0.214
5255,0.213
5260,0.213
5265,0.212
5270,0.212
5275,0.211
5280,0.21
5285,0.21
5290,0.21
5295,0.208
5300,0.207
5305,0.207
5310,0.206
5315,0.204
5320,0.203
5325,0.202
5330,0.202
5335,0.202
5340,0.202
5345,0.202
5350,0.201
5355,0.2
5360,0.2
5365,0.201
5370,0.203
5375,0.202
5380,0.201
5385,0.2
5390,0.2
5395,0.2
5400,0.199
5405,0.197
5410,0.197
5415,0.2
5420,0.202
5425,0.201
5430,0.2
5435,0.199
5440,0.2
5445,0.198
5450,0.196
5455,0.196
5460,0.196
5465,0.195
5470,0.193
5475,0.192
5480,0.192
5485,0.192
5490,0.191
5495,0.191
5500,0.191
5505,0.19
5510,0.19
5515,0.189
5520,0.189
5525,0.189
5530,0.189
5535,0.188
5540,0.188
5545,0.187
5550,0.187
5555,0.186
5560,0.185
5565,0.185
5570,0.185
5575,0.185
5580,0.184
5585,0.184
5590,0.183
5595,0.183
5600,0.183
5605,0.182
5610,0.181
5615,0.18
5620,0.179
5625,0.179
5630,0.179
5635,0.177
5640,0.176
5645,0.176
5650,0.175
5655,0.176
5660,0.176
5665,0.175
5670,0.174
5675,0.174
5680,0.174
5685,0.174
5690,0.174
5695,0.173
5700,0.172
5705,0.171
5710,0.17
5715,0.169
5720,0.169
5725,0.169
5730,0.168
5735,0.168
5740,0.167
5745,0.167
5750,0.166
5755,0.166
5760,0.165
5765,0.165
5770,0.164
5775,0.164
5780,0.163
5785,0.163
5790,0.162
5795,0.162
5800,0.161
5805,0.161
5810,0.16
5815,0.16
5820,0.159
5825,0.159
5830,0.158
5835,0.158
5840,0.157
5845,0.157
5850,0.156
5855,0.156
5860,0.155
5865,0.155
5870,0.154
5875,0.154
5880,0.153
5885,0.153
5890,0.152
5895,0.152
5900,0.151
5905,0.151
5910,0.15
5915,0.15
5920,0.149
5925,0.149
5930,0.149
5935,0.148
5940,0.148
5945,0.147
5950,0.147
5955,0.146
5960,0.146
5965,0.145
5970,0.145
5975,0.144
5980,0.144
5985,0.144
5990,0.143
5995,0.143
6000,0.143
6005,0.145
6010,0.144
6015,0.144
6020,0.143
6025,0.143
6030,0.142
6035,0.141
6040,0.141
6045,0.14
6050,0.14
6055,0.14
6060,0.14
6065,0.14
6070,0.14
6075,0.139
6080,0.139
6085,0.139
6090,0.139
6095,0.139
6100,0.139
6105,0.139
6110,0.139
6115,0.138
6120,0.138
6125,0.137
6130,0.136
6135,0.136
6140,0.135
6145,0.134
6150,0.134
6155,0.133
6160,0.133
6165,0.133
6170,0.133
6175,0.132
6180,0.132
6185,0.132
6190,0.132
6195,0.131
6200,0.131
6205,0.131
6210,0.13
6215,0.13
6220,0.13
6225,0.13
6230,0.129
6235,0.129
6240,0.129
6245,0.128
6250,0.127
6255,0.127
6260,0.126
6265,0.126
6270,0.126
6275,0.123
6280,0.123
6285,0.125
6290,0.124
6295,0.123
6300,0.123
6305,0.123
6310,0.123
6315,0.123
6320,0.123
6325,0.123
6330,0.122
6335,0.122
6340,0.121
6345,0.12
6350,0.121
6355,0.12
6360,0.12
6365,0.12
6370,0.119
6375,0.119
6380,0.119
6385,0.119
6390,0.119
6395,0.118
6400,0.118
6405,0.118
6410,0.118
6415,0.117
6420,0.116
6425,0.116
6430,0.117
6435,0.116
6440,0.116
6445,0.116
6450,0.115
6455,0.114
6460,0.114
6465,0.114
6470,0.114
6475,0.114
6480,0.113
6485,0.113
6490,0.113
6495,0.112
6500,0.111
6505,0.111
6510,0.111
6515,0.11
6520,0.11
6525,0.11
6530,0.109
6535,0.108
6540,0.106
6545,0.104
6550,0.1
6555,0.094
6560,0.088
6565,0.088
6570,0.095
6575,0.099
6580,0.102
6585,0.104
6590,0.105
6595,0.106
6600,0.106
6605,0.106
6610,0.106
6615,0.106
6620,0.106
6625,0.105
6630,0.105
6635,0.105
6640,0.105
6645,0.104
6650,0.104
6655,0.104
6660,0.104
6665,0.103
6670,0.103
6675,0.103
6680,0.103
6685,0.103
6690,0.102
6695,0.102
6700,0.102
6705,0.102
6710,0.102
6715,0.102
6720,0.101
6725,0.102
6730,0.101
6735,0.101
6740,0.1
6745,0.1
6750,0.1
6755,0.1
6760,0.1
6765,0.099
6770,0.099
6775,0.099
6780,0.099
6785,0.099
6790,0.099
6795,0.099
6800,0.098
6805,0.099
6810,0.098
6815,0.097
6820,0.097
6825,0.098
6830,0.098
6835,0.098
6840,0.098
6845,0.097
6850,0.097
6855,0.096
6860,0.095
6865,0.094
6870,0.093
6875,0.093
6880,0.093
6885,0.092
6890,0.092
6895,0.093
6900,0.093
6905,0.093
6910,0.093
6915,0.093
6920,0.093
6925,0.093
6930,0.092
6935,0.092
6940,0.092
6945,0.092
6950,0.092
6955,0.091
6960,0.091
6965,0.091
6970,0.091
6975,0.09
6980,0.09
6985,0.09
6990,0.089
6995,0.089
7000,0.089
7005,0.089
7010,0.089
7015,0.089
7020,0.089
7025,0.088
7030,0.089
7035,0.089
7040,0.088
7045,0.088
7050,0.088
7055,0.088
7060,0.088
7065,0.088
7070,0.087
7075,0.087
7080,0.087
7085,0.087
7090,0.087
7095,0.087
7100,0.086
7105,0.086
7110,0.086
7115,0.086
7120,0.086
7125,0.085
7130,0.085
7135,0.085
7140,0.085
7145,0.085
7150,0.085
7155,0.084
7160,0.085
7165,0.084
7170,0.084
7175,0.083
7180,0.083
7185,0.081
7190,0.081
7195,0.081
7200,0.08
7205,0.08
7210,0.081
7215,0.081
7220,0.081
7225,0.081
7230,0.08
7235,0.079
7240,0.079
7245,0.079
7250,0.079
7255,0.079
7260,0.078
7265,0.078
7270,0.078
7275,0.078
7280,0.078
7285,0.079
7290,0.078
7295,0.078
7300,0.078
7305,0.077
7310,0.077
7315,0.078
7320,0.078
7325,0.078
7330,0.077
7335,0.077
7340,0.077
7345,0.077
7350,0.077
7355,0.077
7360,0.077
7365,0.077
7370,0.076
7375,0.076
7380,0.076
7385,0.076
7390,0.076
7395,0.076
7400,0.076
7405,0.076
7410,0.076
7415,0.075
7420,0.075
7425,0.075
7430,0.075
7435,0.075
7440,0.075
7445,0.074
7450,0.074
7455,0.074
7460,0.074
7465,0.073
7470,0.073
7475,0.073
7480,0.072
7485,0.072
7490,0.072
7495,0.072
7500,0.072
7505,0.072
7510,0.071
7515,0.071
7520,0.071
7525,0.071
7530,0.071
7535,0.07
7540,0.07
7545,0.07
7550,0.069
7555,0.069
7560,0.069
7565,0.069
7570,0.07
7575,0.07
7580,0.07
7585,0.069
7590,0.067
7595,0.066
7600,0.065
7605,0.064
7610,0.063
7615,0.063
7620,0.064
7625,0.064
7630,0.064
7635,0.065
7640,0.066
7645,0.066
7650,0.067
7655,0.067
7660,0.067
7665,0.066
7670,0.066
7675,0.065
7680,0.065
7685,0.065
7690,0.065
7695,0.066
7700,0.066
7705,0.066
7710,0.066
7715,0.066
7720,0.066
7725,0.066
7730,0.065
7735,0.065
7740,0.065
7745,0.065
7750,0.065
7755,0.064
7760,0.064
7765,0.064
7770,0.063
7775,0.062
7780,0.063
7785,0.064
7790,0.064
7795,0.064
7800,0.064
7805,0.064
7810,0.064
7815,0.063
7820,0.063
7825,0.063
7830,0.063
7835,0.062
7840,0.062
7845,0.062
7850,0.062
7855,0.062
7860,0.062
7865,0.062
7870,0.062
7875,0.061
7880,0.061
7885,0.061
7890,0.061
7895,0.06
7900,0.06
7905,0.06
7910,0.06
7915,0.06
7920,0.06
7925,0.06
7930,0.06
7935,0.06
7940,0.06
7945,0.059
7950,0.06
7955,0.06
7960,0.06
7965,0.059
7970,0.059
7975,0.059
7980,0.059
7985,0.058
7990,0.058
7995,0.058
8000,0.058
8005,0.058
8010,0.058
8015,0.058
8020,0.057
8025,0.057
8030,0.057
8035,0.057
8040,0.057
8045,0.057
8050,0.057
8055,0.057
8060,0.057
8065,0.057
8070,0.057
8075,0.057
8080,0.056
8085,0.056
8090,0.056
8095,0.057
8100,0.056
8105,0.056
8110,0.057
8115,0.056
8120,0.056
8125,0.056
8130,0.056
8135,0.056
8140,0.055
8145,0.055
8150,0.055
8155,0.055
8160,0.054
8165,0.053
8170,0.054
8175,0.054
8180,0.054
8185,0.054
8190,0.054
8195,0.054
8200,0.054
8205,0.055
8210,0.055
8215,0.055
8220,0.054
8225,0.053
8230,0.052
8235,0.052
8240,0.053
8245,0.053
8250,0.054
8255,0.054
8260,0.054
8265,0.054
8270,0.054
8275,0.053
8280,0.053
8285,0.053
8290,0.053
8295,0.053
8300,0.053
8305,0.053
8310,0.052
8315,0.052
8320,0.051
8325,0.051
8330,0.051
8335,0.051
8340,0.051
8345,0.051
8350,0.051
8355,0.052
8360,0.051
8365,0.051
8370,0.051
8375,0.051
8380,0.051
8385,0.051
8390,0.051
8395,0.051
8400,0.051
8405,0.051
8410,0.051
8415,0.051
8420,0.051
8425,0.051
8430,0.051
8435,0.051
8440,0.05
8445,0.05
8450,0.049
8455,0.049
8460,0.049
8465,0.049
8470,0.049
8475,0.05
8480,0.051
8485,0.051
8490,0.05
8495,0.049
8500,0.048
8505,0.048
8510,0.048
8515,0.049
8520,0.049
8525,0.05
8530,0.049
8535,0.049
8540,0.048
8545,0.047
8550,0.047
8555,0.048
8560,0.048
8565,0.049
8570,0.05
8575,0.05
8580,0.049
8585,0.048
8590,0.047
8595,0.045
8600,0.045
8605,0.046
8610,0.048
8615,0.05
8620,0.051
8625,0.052
8630,0.052
8635,0.052
8640,0.051
8645,0.05
8650,0.048
8655,0.046
8660,0.044
8665,0.043
8670,0.043
8675,0.045
8680,0.046
8685,0.048
8690,0.049
8695,0.05
8700,0.051
8705,0.052
8710,0.052
8715,0.052
8720,0.052
8725,0.05
8730,0.048
8735,0.046
8740,0.044
8745,0.042
8750,0.04
8755,0.04
8760,0.043
8765,0.045
8770,0.047
8775,0.048
8780,0.049
8785,0.049
8790,0.049
8795,0.049
8800,0.049
8805,0.048
8810,0.049
8815,0.049
8820,0.048
8825,0.048
8830,0.047
8835,0.046
8840,0.045
8845,0.044
8850,0.042
8855,0.04
8860,0.038
8865,0.038
8870,0.039
8875,0.041
8880,0.043
8885,0.045
8890,0.045
8895,0.046
8900,0.047
8905,0.047
8910,0.047
8915,0.047
8920,0.047
8925,0.047
8930,0.047
8935,0.047
8940,0.047
8945,0.047
8950,0.047
8955,0.047
8960,0.047
8965,0.046
8970,0.045
8975,0.045
8980,0.044
8985,0.043
8990,0.041
8995,0.041
9000,0.039
9005,0.038
9010,0.036
9015,0.035
9020,0.036
9025,0.038
9030,0.04
9035,0.043
9040,0.044
9045,0.045
9050,0.046
9055,0.046
9060,0.045
9065,0.045
9070,0.044
9075,0.044
9080,0.043
9085,0.043
9090,0.043
9095,0.043
9100,0.044
9105,0.044
9110,0.044
9115,0.044
9120,0.044
9125,0.044
9130,0.042
9135,0.042
9140,0.043
9145,0.043
9150,0.042
9155,0.042
9160,0.042
9165,0.043
9170,0.042
9175,0.042
9180,0.042
9185,0.042
9190,0.042
9195,0.042
9200,0.041
9205,0.041
9210,0.039
9215,0.037
9220,0.036
9225,0.034
9230,0.033
9235,0.034
9240,0.035
9245,0.037
9250,0.038
9255,0.039
9260,0.04
9265,0.04
9270,0.041
9275,0.042
9280,0.041
9285,0.042
9290,0.041
9295,0.041
9300,0.04
9305,0.039
9310,0.038
9315,0.037
9320,0.038
9325,0.037
9330,0.039
9335,0.038
9340,0.037
9345,0.035
9350,0.038
9355,0.036
9360,0.036
9365,0.037
9370,0.037
9375,0.038
9380,0.037
9385,0.041
9390,0.042
9395,0.043
9400,0.044
9405,0.043
9410,0.043
9415,0.042
9420,0.04
9425,0.039
9430,0.036
9435,0.038
9440,0.035
9445,0.036
9450,0.037
9455,0.037
9460,0.038
9465,0.037
9470,0.039
9475,0.039
9480,0.036
9485,0.037
9490,0.039
9495,0.037
9500,0.035
9505,0.037
9510,0.039
9515,0.037
9520,0.034
9525,0.034
9530,0.033
9535,0.032
9540,0.029
9545,0.029
9550,0.029
9555,0.03
9560,0.032
9565,0.033
9570,0.033
9575,0.037
9580,0.036
9585,0.036
9590,0.034
9595,0.034
9600,0.035
9605,0.036
9610,0.036
9615,0.036
9620,0.035
9625,0.035
9630,0.036
9635,0.034
9640,0.034
9645,0.035
9650,0.036
9655,0.035
9660,0.036
9665,0.035
9670,0.037
9675,0.036
9680,0.036
9685,0.036
9690,0.036
9695,0.036
9700,0.036
9705,0.035
9710,0.035
9715,0.034
9720,0.036
9725,0.033
9730,0.035
9735,0.035
9740,0.036
9745,0.035
9750,0.034
9755,0.034
9760,0.033
9765,0.034
9770,0.034
9775,0.034
9780,0.034
9785,0.035
9790,0.034
9795,0.033
9800,0.034
9805,0.034
9810,0.035
9815,0.035
9820,0.036
9825,0.035
9830,0.034
9835,0.034
9840,0.033
9845,0.033
9850,0.033
9855,0.033
9860,0.033
9865,0.034
9870,0.034
9875,0.034
9880,0.034
9885,0.034
9890,0.035
9895,0.034
9900,0.034
9905,0.034
9910,0.034
9915,0.034
9920,0.034
9925,0.033
9930,0.033
9935,0.033
9940,0.033
9945,0.033
9950,0.033
9955,0.033
9960,0.033
9965,0.033
9970,0.033
9975,0.033
9980,0.033
9985,0.033
9990,0.033
9995,0.033
